#  E (eV)   dos(E)     Int dos(E) EFermi =    7.253 eV
  -5.000  0.5109E+00  0.1024E+02
  -4.990  0.5155E+00  0.1025E+02
  -4.980  0.5201E+00  0.1025E+02
  -4.970  0.5249E+00  0.1026E+02
  -4.960  0.5297E+00  0.1026E+02
  -4.950  0.5347E+00  0.1027E+02
  -4.940  0.5394E+00  0.1027E+02
  -4.930  0.5445E+00  0.1028E+02
  -4.920  0.5497E+00  0.1029E+02
  -4.910  0.5548E+00  0.1029E+02
  -4.900  0.5595E+00  0.1030E+02
  -4.890  0.5645E+00  0.1030E+02
  -4.880  0.5693E+00  0.1031E+02
  -4.870  0.5744E+00  0.1031E+02
  -4.860  0.5797E+00  0.1032E+02
  -4.850  0.5848E+00  0.1032E+02
  -4.840  0.5902E+00  0.1033E+02
  -4.830  0.5957E+00  0.1034E+02
  -4.820  0.6008E+00  0.1034E+02
  -4.810  0.6061E+00  0.1035E+02
  -4.800  0.6114E+00  0.1035E+02
  -4.790  0.6169E+00  0.1036E+02
  -4.780  0.6223E+00  0.1037E+02
  -4.770  0.6278E+00  0.1037E+02
  -4.760  0.6336E+00  0.1038E+02
  -4.750  0.6391E+00  0.1039E+02
  -4.740  0.6449E+00  0.1039E+02
  -4.730  0.6506E+00  0.1040E+02
  -4.720  0.6563E+00  0.1041E+02
  -4.710  0.6624E+00  0.1041E+02
  -4.700  0.6681E+00  0.1042E+02
  -4.690  0.6743E+00  0.1043E+02
  -4.680  0.6804E+00  0.1043E+02
  -4.670  0.6868E+00  0.1044E+02
  -4.660  0.6931E+00  0.1045E+02
  -4.650  0.6990E+00  0.1045E+02
  -4.640  0.7053E+00  0.1046E+02
  -4.630  0.7121E+00  0.1047E+02
  -4.620  0.7184E+00  0.1047E+02
  -4.610  0.7253E+00  0.1048E+02
  -4.600  0.7319E+00  0.1049E+02
  -4.590  0.7389E+00  0.1050E+02
  -4.580  0.7458E+00  0.1050E+02
  -4.570  0.7533E+00  0.1051E+02
  -4.560  0.7610E+00  0.1052E+02
  -4.550  0.7677E+00  0.1053E+02
  -4.540  0.7747E+00  0.1053E+02
  -4.530  0.7826E+00  0.1054E+02
  -4.520  0.7901E+00  0.1055E+02
  -4.510  0.7983E+00  0.1056E+02
  -4.500  0.8061E+00  0.1057E+02
  -4.490  0.8145E+00  0.1057E+02
  -4.480  0.8224E+00  0.1058E+02
  -4.470  0.8313E+00  0.1059E+02
  -4.460  0.8403E+00  0.1060E+02
  -4.450  0.8491E+00  0.1061E+02
  -4.440  0.8578E+00  0.1062E+02
  -4.430  0.8671E+00  0.1062E+02
  -4.420  0.8763E+00  0.1063E+02
  -4.410  0.8863E+00  0.1064E+02
  -4.400  0.8960E+00  0.1065E+02
  -4.390  0.9068E+00  0.1066E+02
  -4.380  0.9162E+00  0.1067E+02
  -4.370  0.9268E+00  0.1068E+02
  -4.360  0.9386E+00  0.1069E+02
  -4.350  0.9496E+00  0.1070E+02
  -4.340  0.9610E+00  0.1071E+02
  -4.330  0.9733E+00  0.1072E+02
  -4.320  0.9857E+00  0.1073E+02
  -4.310  0.9984E+00  0.1074E+02
  -4.300  0.1011E+01  0.1075E+02
  -4.290  0.1025E+01  0.1076E+02
  -4.280  0.1038E+01  0.1077E+02
  -4.270  0.1053E+01  0.1078E+02
  -4.260  0.1069E+01  0.1079E+02
  -4.250  0.1083E+01  0.1080E+02
  -4.240  0.1100E+01  0.1081E+02
  -4.230  0.1117E+01  0.1082E+02
  -4.220  0.1135E+01  0.1083E+02
  -4.210  0.1153E+01  0.1084E+02
  -4.200  0.1172E+01  0.1085E+02
  -4.190  0.1191E+01  0.1087E+02
  -4.180  0.1213E+01  0.1088E+02
  -4.170  0.1237E+01  0.1089E+02
  -4.160  0.1259E+01  0.1090E+02
  -4.150  0.1284E+01  0.1092E+02
  -4.140  0.1311E+01  0.1093E+02
  -4.130  0.1341E+01  0.1094E+02
  -4.120  0.1371E+01  0.1096E+02
  -4.110  0.1405E+01  0.1097E+02
  -4.100  0.1441E+01  0.1098E+02
  -4.090  0.1487E+01  0.1100E+02
  -4.080  0.1532E+01  0.1101E+02
  -4.070  0.1590E+01  0.1103E+02
  -4.060  0.1667E+01  0.1104E+02
  -4.050  0.1778E+01  0.1106E+02
  -4.040  0.1868E+01  0.1108E+02
  -4.030  0.1861E+01  0.1110E+02
  -4.020  0.1874E+01  0.1112E+02
  -4.010  0.1876E+01  0.1114E+02
  -4.000  0.1881E+01  0.1116E+02
  -3.990  0.1890E+01  0.1117E+02
  -3.980  0.1900E+01  0.1119E+02
  -3.970  0.1908E+01  0.1121E+02
  -3.960  0.1911E+01  0.1123E+02
  -3.950  0.1925E+01  0.1125E+02
  -3.940  0.1942E+01  0.1127E+02
  -3.930  0.1954E+01  0.1129E+02
  -3.920  0.1965E+01  0.1131E+02
  -3.910  0.1975E+01  0.1133E+02
  -3.900  0.1987E+01  0.1135E+02
  -3.890  0.2005E+01  0.1137E+02
  -3.880  0.2031E+01  0.1139E+02
  -3.870  0.2051E+01  0.1141E+02
  -3.860  0.2073E+01  0.1143E+02
  -3.850  0.2100E+01  0.1145E+02
  -3.840  0.2130E+01  0.1147E+02
  -3.830  0.2166E+01  0.1149E+02
  -3.820  0.2213E+01  0.1152E+02
  -3.810  0.2268E+01  0.1154E+02
  -3.800  0.2337E+01  0.1156E+02
  -3.790  0.2489E+01  0.1158E+02
  -3.780  0.2541E+01  0.1161E+02
  -3.770  0.2549E+01  0.1164E+02
  -3.760  0.2545E+01  0.1166E+02
  -3.750  0.2554E+01  0.1169E+02
  -3.740  0.2560E+01  0.1171E+02
  -3.730  0.2571E+01  0.1174E+02
  -3.720  0.2568E+01  0.1176E+02
  -3.710  0.2588E+01  0.1179E+02
  -3.700  0.2592E+01  0.1181E+02
  -3.690  0.2607E+01  0.1184E+02
  -3.680  0.2642E+01  0.1187E+02
  -3.670  0.2647E+01  0.1189E+02
  -3.660  0.2196E+01  0.1192E+02
  -3.650  0.1732E+01  0.1194E+02
  -3.640  0.1466E+01  0.1195E+02
  -3.630  0.1212E+01  0.1197E+02
  -3.620  0.1011E+01  0.1198E+02
  -3.610  0.7892E+00  0.1199E+02
  -3.600  0.5829E+00  0.1199E+02
  -3.590  0.3179E+00  0.1200E+02
  -3.580  0.0000E+00  0.1200E+02
  -3.570  0.0000E+00  0.1200E+02
  -3.560  0.0000E+00  0.1200E+02
  -3.550  0.0000E+00  0.1200E+02
  -3.540  0.0000E+00  0.1200E+02
  -3.530  0.0000E+00  0.1200E+02
  -3.520  0.0000E+00  0.1200E+02
  -3.510  0.0000E+00  0.1200E+02
  -3.500  0.0000E+00  0.1200E+02
  -3.490  0.0000E+00  0.1200E+02
  -3.480  0.0000E+00  0.1200E+02
  -3.470  0.0000E+00  0.1200E+02
  -3.460  0.0000E+00  0.1200E+02
  -3.450  0.0000E+00  0.1200E+02
  -3.440  0.0000E+00  0.1200E+02
  -3.430  0.0000E+00  0.1200E+02
  -3.420  0.0000E+00  0.1200E+02
  -3.410  0.0000E+00  0.1200E+02
  -3.400  0.0000E+00  0.1200E+02
  -3.390  0.0000E+00  0.1200E+02
  -3.380  0.0000E+00  0.1200E+02
  -3.370  0.0000E+00  0.1200E+02
  -3.360  0.0000E+00  0.1200E+02
  -3.350  0.0000E+00  0.1200E+02
  -3.340  0.0000E+00  0.1200E+02
  -3.330  0.0000E+00  0.1200E+02
  -3.320  0.0000E+00  0.1200E+02
  -3.310  0.0000E+00  0.1200E+02
  -3.300  0.0000E+00  0.1200E+02
  -3.290  0.0000E+00  0.1200E+02
  -3.280  0.0000E+00  0.1200E+02
  -3.270  0.0000E+00  0.1200E+02
  -3.260  0.0000E+00  0.1200E+02
  -3.250  0.0000E+00  0.1200E+02
  -3.240  0.0000E+00  0.1200E+02
  -3.230  0.0000E+00  0.1200E+02
  -3.220  0.0000E+00  0.1200E+02
  -3.210  0.0000E+00  0.1200E+02
  -3.200  0.0000E+00  0.1200E+02
  -3.190  0.0000E+00  0.1200E+02
  -3.180  0.0000E+00  0.1200E+02
  -3.170  0.0000E+00  0.1200E+02
  -3.160  0.0000E+00  0.1200E+02
  -3.150  0.0000E+00  0.1200E+02
  -3.140  0.0000E+00  0.1200E+02
  -3.130  0.0000E+00  0.1200E+02
  -3.120  0.0000E+00  0.1200E+02
  -3.110  0.0000E+00  0.1200E+02
  -3.100  0.0000E+00  0.1200E+02
  -3.090  0.0000E+00  0.1200E+02
  -3.080  0.0000E+00  0.1200E+02
  -3.070  0.0000E+00  0.1200E+02
  -3.060  0.0000E+00  0.1200E+02
  -3.050  0.0000E+00  0.1200E+02
  -3.040  0.0000E+00  0.1200E+02
  -3.030  0.0000E+00  0.1200E+02
  -3.020  0.0000E+00  0.1200E+02
  -3.010  0.0000E+00  0.1200E+02
  -3.000  0.0000E+00  0.1200E+02
  -2.990  0.0000E+00  0.1200E+02
  -2.980  0.0000E+00  0.1200E+02
  -2.970  0.0000E+00  0.1200E+02
  -2.960  0.0000E+00  0.1200E+02
  -2.950  0.0000E+00  0.1200E+02
  -2.940  0.0000E+00  0.1200E+02
  -2.930  0.0000E+00  0.1200E+02
  -2.920  0.0000E+00  0.1200E+02
  -2.910  0.0000E+00  0.1200E+02
  -2.900  0.0000E+00  0.1200E+02
  -2.890  0.0000E+00  0.1200E+02
  -2.880  0.0000E+00  0.1200E+02
  -2.870  0.0000E+00  0.1200E+02
  -2.860  0.0000E+00  0.1200E+02
  -2.850  0.0000E+00  0.1200E+02
  -2.840  0.0000E+00  0.1200E+02
  -2.830  0.0000E+00  0.1200E+02
  -2.820  0.0000E+00  0.1200E+02
  -2.810  0.0000E+00  0.1200E+02
  -2.800  0.0000E+00  0.1200E+02
  -2.790  0.0000E+00  0.1200E+02
  -2.780  0.0000E+00  0.1200E+02
  -2.770  0.0000E+00  0.1200E+02
  -2.760  0.0000E+00  0.1200E+02
  -2.750  0.0000E+00  0.1200E+02
  -2.740  0.0000E+00  0.1200E+02
  -2.730  0.0000E+00  0.1200E+02
  -2.720  0.0000E+00  0.1200E+02
  -2.710  0.0000E+00  0.1200E+02
  -2.700  0.0000E+00  0.1200E+02
  -2.690  0.0000E+00  0.1200E+02
  -2.680  0.0000E+00  0.1200E+02
  -2.670  0.0000E+00  0.1200E+02
  -2.660  0.0000E+00  0.1200E+02
  -2.650  0.0000E+00  0.1200E+02
  -2.640  0.0000E+00  0.1200E+02
  -2.630  0.0000E+00  0.1200E+02
  -2.620  0.0000E+00  0.1200E+02
  -2.610  0.0000E+00  0.1200E+02
  -2.600  0.0000E+00  0.1200E+02
  -2.590  0.0000E+00  0.1200E+02
  -2.580  0.0000E+00  0.1200E+02
  -2.570  0.0000E+00  0.1200E+02
  -2.560  0.0000E+00  0.1200E+02
  -2.550  0.0000E+00  0.1200E+02
  -2.540  0.0000E+00  0.1200E+02
  -2.530  0.0000E+00  0.1200E+02
  -2.520  0.0000E+00  0.1200E+02
  -2.510  0.0000E+00  0.1200E+02
  -2.500  0.0000E+00  0.1200E+02
  -2.490  0.0000E+00  0.1200E+02
  -2.480  0.0000E+00  0.1200E+02
  -2.470  0.0000E+00  0.1200E+02
  -2.460  0.0000E+00  0.1200E+02
  -2.450  0.0000E+00  0.1200E+02
  -2.440  0.0000E+00  0.1200E+02
  -2.430  0.0000E+00  0.1200E+02
  -2.420  0.0000E+00  0.1200E+02
  -2.410  0.0000E+00  0.1200E+02
  -2.400  0.0000E+00  0.1200E+02
  -2.390  0.0000E+00  0.1200E+02
  -2.380  0.0000E+00  0.1200E+02
  -2.370  0.0000E+00  0.1200E+02
  -2.360  0.0000E+00  0.1200E+02
  -2.350  0.0000E+00  0.1200E+02
  -2.340  0.0000E+00  0.1200E+02
  -2.330  0.0000E+00  0.1200E+02
  -2.320  0.0000E+00  0.1200E+02
  -2.310  0.0000E+00  0.1200E+02
  -2.300  0.0000E+00  0.1200E+02
  -2.290  0.0000E+00  0.1200E+02
  -2.280  0.0000E+00  0.1200E+02
  -2.270  0.0000E+00  0.1200E+02
  -2.260  0.0000E+00  0.1200E+02
  -2.250  0.0000E+00  0.1200E+02
  -2.240  0.0000E+00  0.1200E+02
  -2.230  0.0000E+00  0.1200E+02
  -2.220  0.0000E+00  0.1200E+02
  -2.210  0.0000E+00  0.1200E+02
  -2.200  0.0000E+00  0.1200E+02
  -2.190  0.0000E+00  0.1200E+02
  -2.180  0.0000E+00  0.1200E+02
  -2.170  0.0000E+00  0.1200E+02
  -2.160  0.0000E+00  0.1200E+02
  -2.150  0.0000E+00  0.1200E+02
  -2.140  0.0000E+00  0.1200E+02
  -2.130  0.0000E+00  0.1200E+02
  -2.120  0.0000E+00  0.1200E+02
  -2.110  0.0000E+00  0.1200E+02
  -2.100  0.0000E+00  0.1200E+02
  -2.090  0.0000E+00  0.1200E+02
  -2.080  0.0000E+00  0.1200E+02
  -2.070  0.0000E+00  0.1200E+02
  -2.060  0.0000E+00  0.1200E+02
  -2.050  0.0000E+00  0.1200E+02
  -2.040  0.0000E+00  0.1200E+02
  -2.030  0.0000E+00  0.1200E+02
  -2.020  0.0000E+00  0.1200E+02
  -2.010  0.0000E+00  0.1200E+02
  -2.000  0.0000E+00  0.1200E+02
  -1.990  0.0000E+00  0.1200E+02
  -1.980  0.0000E+00  0.1200E+02
  -1.970  0.0000E+00  0.1200E+02
  -1.960  0.0000E+00  0.1200E+02
  -1.950  0.0000E+00  0.1200E+02
  -1.940  0.0000E+00  0.1200E+02
  -1.930  0.0000E+00  0.1200E+02
  -1.920  0.0000E+00  0.1200E+02
  -1.910  0.0000E+00  0.1200E+02
  -1.900  0.0000E+00  0.1200E+02
  -1.890  0.0000E+00  0.1200E+02
  -1.880  0.0000E+00  0.1200E+02
  -1.870  0.0000E+00  0.1200E+02
  -1.860  0.0000E+00  0.1200E+02
  -1.850  0.0000E+00  0.1200E+02
  -1.840  0.0000E+00  0.1200E+02
  -1.830  0.0000E+00  0.1200E+02
  -1.820  0.0000E+00  0.1200E+02
  -1.810  0.0000E+00  0.1200E+02
  -1.800  0.0000E+00  0.1200E+02
  -1.790  0.0000E+00  0.1200E+02
  -1.780  0.0000E+00  0.1200E+02
  -1.770  0.0000E+00  0.1200E+02
  -1.760  0.4856E-02  0.1200E+02
  -1.750  0.6739E-01  0.1200E+02
  -1.740  0.1292E+00  0.1200E+02
  -1.730  0.1691E+00  0.1200E+02
  -1.720  0.1945E+00  0.1200E+02
  -1.710  0.2228E+00  0.1201E+02
  -1.700  0.2467E+00  0.1201E+02
  -1.690  0.2692E+00  0.1201E+02
  -1.680  0.2921E+00  0.1201E+02
  -1.670  0.3097E+00  0.1202E+02
  -1.660  0.3295E+00  0.1202E+02
  -1.650  0.3509E+00  0.1202E+02
  -1.640  0.3710E+00  0.1203E+02
  -1.630  0.3885E+00  0.1203E+02
  -1.620  0.4043E+00  0.1204E+02
  -1.610  0.4206E+00  0.1204E+02
  -1.600  0.4405E+00  0.1204E+02
  -1.590  0.4602E+00  0.1205E+02
  -1.580  0.4765E+00  0.1205E+02
  -1.570  0.4931E+00  0.1206E+02
  -1.560  0.5088E+00  0.1206E+02
  -1.550  0.5257E+00  0.1207E+02
  -1.540  0.5450E+00  0.1207E+02
  -1.530  0.5634E+00  0.1208E+02
  -1.520  0.5805E+00  0.1208E+02
  -1.510  0.5968E+00  0.1209E+02
  -1.500  0.6126E+00  0.1210E+02
  -1.490  0.6316E+00  0.1210E+02
  -1.480  0.6500E+00  0.1211E+02
  -1.470  0.6694E+00  0.1212E+02
  -1.460  0.6900E+00  0.1212E+02
  -1.450  0.7085E+00  0.1213E+02
  -1.440  0.7266E+00  0.1214E+02
  -1.430  0.7437E+00  0.1214E+02
  -1.420  0.7652E+00  0.1215E+02
  -1.410  0.7849E+00  0.1216E+02
  -1.400  0.8083E+00  0.1217E+02
  -1.390  0.8314E+00  0.1218E+02
  -1.380  0.8527E+00  0.1218E+02
  -1.370  0.8754E+00  0.1219E+02
  -1.360  0.8964E+00  0.1220E+02
  -1.350  0.9227E+00  0.1221E+02
  -1.340  0.9466E+00  0.1222E+02
  -1.330  0.9764E+00  0.1223E+02
  -1.320  0.1006E+01  0.1224E+02
  -1.310  0.1033E+01  0.1225E+02
  -1.300  0.1063E+01  0.1226E+02
  -1.290  0.1101E+01  0.1227E+02
  -1.280  0.1138E+01  0.1228E+02
  -1.270  0.1178E+01  0.1229E+02
  -1.260  0.1215E+01  0.1231E+02
  -1.250  0.1262E+01  0.1232E+02
  -1.240  0.1320E+01  0.1233E+02
  -1.230  0.1392E+01  0.1234E+02
  -1.220  0.1473E+01  0.1236E+02
  -1.210  0.1638E+01  0.1237E+02
  -1.200  0.1719E+01  0.1239E+02
  -1.190  0.1714E+01  0.1241E+02
  -1.180  0.1710E+01  0.1243E+02
  -1.170  0.1696E+01  0.1244E+02
  -1.160  0.1691E+01  0.1246E+02
  -1.150  0.1683E+01  0.1248E+02
  -1.140  0.1685E+01  0.1249E+02
  -1.130  0.1673E+01  0.1251E+02
  -1.120  0.1667E+01  0.1253E+02
  -1.110  0.1661E+01  0.1254E+02
  -1.100  0.1644E+01  0.1256E+02
  -1.090  0.1647E+01  0.1258E+02
  -1.080  0.1641E+01  0.1259E+02
  -1.070  0.1628E+01  0.1261E+02
  -1.060  0.1624E+01  0.1263E+02
  -1.050  0.1621E+01  0.1264E+02
  -1.040  0.1611E+01  0.1266E+02
  -1.030  0.1608E+01  0.1267E+02
  -1.020  0.1603E+01  0.1269E+02
  -1.010  0.1594E+01  0.1271E+02
  -1.000  0.1586E+01  0.1272E+02
  -0.990  0.1580E+01  0.1274E+02
  -0.980  0.1578E+01  0.1275E+02
  -0.970  0.1565E+01  0.1277E+02
  -0.960  0.1563E+01  0.1279E+02
  -0.950  0.1562E+01  0.1280E+02
  -0.940  0.1548E+01  0.1282E+02
  -0.930  0.1555E+01  0.1283E+02
  -0.920  0.1482E+01  0.1285E+02
  -0.910  0.1411E+01  0.1286E+02
  -0.900  0.1366E+01  0.1288E+02
  -0.890  0.1334E+01  0.1289E+02
  -0.880  0.1301E+01  0.1290E+02
  -0.870  0.1274E+01  0.1291E+02
  -0.860  0.1252E+01  0.1293E+02
  -0.850  0.1231E+01  0.1294E+02
  -0.840  0.1210E+01  0.1295E+02
  -0.830  0.1192E+01  0.1296E+02
  -0.820  0.1173E+01  0.1298E+02
  -0.810  0.1158E+01  0.1299E+02
  -0.800  0.1142E+01  0.1300E+02
  -0.790  0.1128E+01  0.1301E+02
  -0.780  0.1116E+01  0.1302E+02
  -0.770  0.1100E+01  0.1303E+02
  -0.760  0.1087E+01  0.1304E+02
  -0.750  0.1074E+01  0.1305E+02
  -0.740  0.1064E+01  0.1307E+02
  -0.730  0.1054E+01  0.1308E+02
  -0.720  0.1043E+01  0.1309E+02
  -0.710  0.1033E+01  0.1310E+02
  -0.700  0.1023E+01  0.1311E+02
  -0.690  0.1012E+01  0.1312E+02
  -0.680  0.1003E+01  0.1313E+02
  -0.670  0.9928E+00  0.1314E+02
  -0.660  0.9841E+00  0.1315E+02
  -0.650  0.9758E+00  0.1316E+02
  -0.640  0.9681E+00  0.1317E+02
  -0.630  0.9599E+00  0.1318E+02
  -0.620  0.9524E+00  0.1319E+02
  -0.610  0.9452E+00  0.1320E+02
  -0.600  0.9371E+00  0.1320E+02
  -0.590  0.9294E+00  0.1321E+02
  -0.580  0.9212E+00  0.1322E+02
  -0.570  0.9148E+00  0.1323E+02
  -0.560  0.9077E+00  0.1324E+02
  -0.550  0.9007E+00  0.1325E+02
  -0.540  0.8947E+00  0.1326E+02
  -0.530  0.8886E+00  0.1327E+02
  -0.520  0.8819E+00  0.1328E+02
  -0.510  0.8762E+00  0.1329E+02
  -0.500  0.8703E+00  0.1329E+02
  -0.490  0.8636E+00  0.1330E+02
  -0.480  0.8581E+00  0.1331E+02
  -0.470  0.8523E+00  0.1332E+02
  -0.460  0.8461E+00  0.1333E+02
  -0.450  0.8414E+00  0.1334E+02
  -0.440  0.8353E+00  0.1335E+02
  -0.430  0.8291E+00  0.1335E+02
  -0.420  0.8242E+00  0.1336E+02
  -0.410  0.8188E+00  0.1337E+02
  -0.400  0.8140E+00  0.1338E+02
  -0.390  0.8092E+00  0.1339E+02
  -0.380  0.8050E+00  0.1340E+02
  -0.370  0.8004E+00  0.1340E+02
  -0.360  0.7953E+00  0.1341E+02
  -0.350  0.7899E+00  0.1342E+02
  -0.340  0.7851E+00  0.1343E+02
  -0.330  0.7801E+00  0.1343E+02
  -0.320  0.7750E+00  0.1344E+02
  -0.310  0.7700E+00  0.1345E+02
  -0.300  0.7654E+00  0.1346E+02
  -0.290  0.7624E+00  0.1347E+02
  -0.280  0.7588E+00  0.1347E+02
  -0.270  0.7549E+00  0.1348E+02
  -0.260  0.7502E+00  0.1349E+02
  -0.250  0.7450E+00  0.1350E+02
  -0.240  0.7403E+00  0.1350E+02
  -0.230  0.7361E+00  0.1351E+02
  -0.220  0.7322E+00  0.1352E+02
  -0.210  0.7290E+00  0.1353E+02
  -0.200  0.7252E+00  0.1353E+02
  -0.190  0.7212E+00  0.1354E+02
  -0.180  0.7170E+00  0.1355E+02
  -0.170  0.7121E+00  0.1355E+02
  -0.160  0.7079E+00  0.1356E+02
  -0.150  0.7055E+00  0.1357E+02
  -0.140  0.7030E+00  0.1358E+02
  -0.130  0.6991E+00  0.1358E+02
  -0.120  0.6932E+00  0.1359E+02
  -0.110  0.6881E+00  0.1360E+02
  -0.100  0.6853E+00  0.1360E+02
  -0.090  0.6851E+00  0.1361E+02
  -0.080  0.6816E+00  0.1362E+02
  -0.070  0.6776E+00  0.1362E+02
  -0.060  0.6704E+00  0.1363E+02
  -0.050  0.6703E+00  0.1364E+02
  -0.040  0.6653E+00  0.1364E+02
  -0.030  0.6648E+00  0.1365E+02
  -0.020  0.6192E+00  0.1366E+02
  -0.010  0.5533E+00  0.1366E+02
   0.000  0.5009E+00  0.1367E+02
   0.010  0.4547E+00  0.1367E+02
   0.020  0.4448E+00  0.1368E+02
   0.030  0.4347E+00  0.1368E+02
   0.040  0.4251E+00  0.1369E+02
   0.050  0.4166E+00  0.1369E+02
   0.060  0.4104E+00  0.1369E+02
   0.070  0.4016E+00  0.1370E+02
   0.080  0.3956E+00  0.1370E+02
   0.090  0.3893E+00  0.1371E+02
   0.100  0.3829E+00  0.1371E+02
   0.110  0.3770E+00  0.1371E+02
   0.120  0.3718E+00  0.1372E+02
   0.130  0.3650E+00  0.1372E+02
   0.140  0.3598E+00  0.1372E+02
   0.150  0.3554E+00  0.1373E+02
   0.160  0.3495E+00  0.1373E+02
   0.170  0.3454E+00  0.1374E+02
   0.180  0.3411E+00  0.1374E+02
   0.190  0.3369E+00  0.1374E+02
   0.200  0.3324E+00  0.1375E+02
   0.210  0.3273E+00  0.1375E+02
   0.220  0.3227E+00  0.1375E+02
   0.230  0.3187E+00  0.1376E+02
   0.240  0.3152E+00  0.1376E+02
   0.250  0.3107E+00  0.1376E+02
   0.260  0.3071E+00  0.1376E+02
   0.270  0.3029E+00  0.1377E+02
   0.280  0.2998E+00  0.1377E+02
   0.290  0.2964E+00  0.1377E+02
   0.300  0.2926E+00  0.1378E+02
   0.310  0.2888E+00  0.1378E+02
   0.320  0.2853E+00  0.1378E+02
   0.330  0.2821E+00  0.1379E+02
   0.340  0.2795E+00  0.1379E+02
   0.350  0.2757E+00  0.1379E+02
   0.360  0.2722E+00  0.1379E+02
   0.370  0.2693E+00  0.1380E+02
   0.380  0.2664E+00  0.1380E+02
   0.390  0.2630E+00  0.1380E+02
   0.400  0.2601E+00  0.1380E+02
   0.410  0.2567E+00  0.1381E+02
   0.420  0.2542E+00  0.1381E+02
   0.430  0.2512E+00  0.1381E+02
   0.440  0.2484E+00  0.1381E+02
   0.450  0.2458E+00  0.1382E+02
   0.460  0.2434E+00  0.1382E+02
   0.470  0.2405E+00  0.1382E+02
   0.480  0.2378E+00  0.1382E+02
   0.490  0.2352E+00  0.1383E+02
   0.500  0.2331E+00  0.1383E+02
   0.510  0.2299E+00  0.1383E+02
   0.520  0.2271E+00  0.1383E+02
   0.530  0.2251E+00  0.1384E+02
   0.540  0.2223E+00  0.1384E+02
   0.550  0.2199E+00  0.1384E+02
   0.560  0.2172E+00  0.1384E+02
   0.570  0.2152E+00  0.1384E+02
   0.580  0.2130E+00  0.1385E+02
   0.590  0.2110E+00  0.1385E+02
   0.600  0.2086E+00  0.1385E+02
   0.610  0.2062E+00  0.1385E+02
   0.620  0.2039E+00  0.1386E+02
   0.630  0.2017E+00  0.1386E+02
   0.640  0.1999E+00  0.1386E+02
   0.650  0.1973E+00  0.1386E+02
   0.660  0.1949E+00  0.1386E+02
   0.670  0.1932E+00  0.1386E+02
   0.680  0.1910E+00  0.1387E+02
   0.690  0.1888E+00  0.1387E+02
   0.700  0.1869E+00  0.1387E+02
   0.710  0.1848E+00  0.1387E+02
   0.720  0.1830E+00  0.1387E+02
   0.730  0.1813E+00  0.1388E+02
   0.740  0.1794E+00  0.1388E+02
   0.750  0.1773E+00  0.1388E+02
   0.760  0.1753E+00  0.1388E+02
   0.770  0.1733E+00  0.1388E+02
   0.780  0.1716E+00  0.1388E+02
   0.790  0.1698E+00  0.1389E+02
   0.800  0.1677E+00  0.1389E+02
   0.810  0.1657E+00  0.1389E+02
   0.820  0.1641E+00  0.1389E+02
   0.830  0.1625E+00  0.1389E+02
   0.840  0.1605E+00  0.1389E+02
   0.850  0.1590E+00  0.1390E+02
   0.860  0.1572E+00  0.1390E+02
   0.870  0.1555E+00  0.1390E+02
   0.880  0.1541E+00  0.1390E+02
   0.890  0.1526E+00  0.1390E+02
   0.900  0.1507E+00  0.1390E+02
   0.910  0.1490E+00  0.1391E+02
   0.920  0.1473E+00  0.1391E+02
   0.930  0.1457E+00  0.1391E+02
   0.940  0.1442E+00  0.1391E+02
   0.950  0.1425E+00  0.1391E+02
   0.960  0.1407E+00  0.1391E+02
   0.970  0.1392E+00  0.1391E+02
   0.980  0.1379E+00  0.1392E+02
   0.990  0.1363E+00  0.1392E+02
   1.000  0.1347E+00  0.1392E+02
   1.010  0.1334E+00  0.1392E+02
   1.020  0.1318E+00  0.1392E+02
   1.030  0.1305E+00  0.1392E+02
